Data from 191228_Ar05mT_300W_ALA10_8000ms_Subt2_02-17-57-813.txt Node
Date: Sun Dec 29 02:17:57 KST 2019
User: L102
Spectrometer: HR4D2517
Trigger mode: 4
Integration Time (sec): 8.000000E0
Scans to average: 1
Electric dark correction enabled: true
Nonlinearity correction enabled: true
Boxcar width: 0
XAxis mode: Wavelengths
Number of Pixels in Spectrum: 3648
>>>>>Begin Spectral Data<<<<<
597.141	-2.96
597.272	-2.96
597.404	-2.96
597.536	-0.95
597.668	5.92
597.8	2.71
597.932	5.87
598.064	0.01
598.196	-0.49
598.328	4.2
598.46	-3.48
598.591	0.7
598.723	3.51
598.855	7.91
598.987	3.51
599.119	-8.96
599.251	-9.7
599.383	-5.8
599.514	10.04
599.646	0.61
599.778	19.63
599.91	16.35
600.042	8.55
600.173	6.41
600.305	2.6
600.437	-0.49
600.569	-0.79
600.701	18.82
600.832	11.72
600.964	-0.89
601.096	21.08
601.228	10.24
601.359	10.81
601.491	-3.79
601.623	17.38
601.755	12.26
601.886	14.75
602.018	21.28
602.15	36.89
602.281	30.19
602.413	34.04
602.545	36.37
602.677	51.92
602.808	68.07
602.94	102.33
603.072	96.59
603.203	42.23
603.335	24.16
603.467	4.01
603.598	21.51
603.73	14.82
603.862	30.53
603.993	59.56
604.125	48.57
604.256	39.61
604.388	16.06
604.52	4.51
604.651	7.2
604.783	10.41
604.915	0.61
605.046	7.7
605.178	9.12
605.309	14.99
605.441	23.88
605.572	12.8
605.704	25.41
605.836	18.64
605.967	5.09
606.099	-0.59
606.23	-3.98
606.362	7.4
606.493	18.67
606.625	0.31
606.756	3.71
606.888	-5.71
607.019	-5.4
607.151	-3.1
607.282	14.1
607.414	14.97
607.545	-3.98
607.677	6.2
607.808	13.35
607.94	0.11
608.071	2.29
608.203	8.52
608.334	2.01
608.466	17.18
608.597	14.51
608.728	9.79
608.86	5.1
608.991	3.31
609.123	10.01
609.254	12.59
609.386	6.3
609.517	15.72
609.648	19.51
609.78	16.11
609.911	41.09
610.043	8.16
610.174	29.47
610.305	21.56
610.437	25.88
610.568	8.06
610.699	13.53
610.831	3.92
610.962	5.41
611.093	10.89
611.225	-1.68
611.356	15.32
611.487	-2.3
611.619	9.25
611.75	3.21
611.881	5.02
612.013	17.17
612.144	6.18
612.275	2.59
612.406	9.5
612.538	8.53
612.669	15.36
612.8	-1.19
612.931	1.81
613.063	15.33
613.194	-5.59
613.325	0.41
613.456	16.61
613.588	8.63
613.719	-1.09
613.85	14.18
613.981	13.19
614.112	24.95
614.244	27.81
614.375	32.39
614.506	16.8
614.637	3.6
614.768	17.02
614.9	12.48
615.031	7.82
615.162	9.31
615.293	21.62
615.424	18.92
615.555	7.42
615.686	3.61
615.818	18.58
615.949	8.97
616.08	12.74
616.211	4.11
616.342	17.01
616.473	-3.89
616.604	11.64
616.735	9.6
616.866	36.71
616.998	33.67
617.129	30.67
617.26	14.51
617.391	8.47
617.522	2.41
617.653	21.42
617.784	7.01
617.915	3.89
618.046	-1.09
618.177	1.51
618.308	2.91
618.439	-4.67
618.57	7.16
618.701	9.23
618.832	-5.5
618.963	-3.69
619.094	3
619.225	-4.69
619.356	0.41
619.487	-2.28
619.618	-1.39
619.749	13.2
619.88	5.9
620.011	2.6
620.142	6.09
620.273	5.4
620.404	2.41
620.535	7.68
620.665	14.39
620.796	10.8
620.927	23.13
621.058	17.88
621.189	19.64
621.32	26.85
621.451	11.92
621.582	16
621.713	15.31
621.844	-0.69
621.974	10.13
622.105	14.38
622.236	6.77
622.367	5.92
622.498	15.53
622.629	-3.79
622.759	-11.08
622.89	2.01
623.021	-2.79
623.152	-3.69
623.283	4.2
623.414	-6.1
623.544	0.11
623.675	-6.45
623.806	2.1
623.937	-1.09
624.067	-8
624.198	6.08
624.329	3.2
624.46	14.78
624.59	9.6
624.721	16.74
624.852	2.9
624.983	5
625.113	3.01
625.244	0.11
625.375	4.81
625.506	2.01
625.636	1.3
625.767	-3.48
625.898	13.24
626.028	5.5
626.159	3.01
626.29	2.79
626.42	14.89
626.551	-4.41
626.682	4.21
626.812	-9.22
626.943	11.98
627.074	-6.08
627.204	12.11
627.335	15.67
627.466	1.59
627.596	7.62
627.727	0.11
627.857	-3.18
627.988	12.2
628.119	15.11
628.249	8.9
628.38	18.1
628.51	2.6
628.641	8.89
628.772	10.63
628.902	15.45
629.033	10
629.163	4.61
629.294	14.61
629.424	32.5
629.555	40.25
629.685	24.22
629.816	3.41
629.946	8.89
630.077	6.02
630.207	8.92
630.338	21.14
630.468	21.82
630.599	26.53
630.729	19.94
630.86	12.93
630.99	15.1
631.121	0.81
631.251	2.81
631.382	-9.11
631.512	6.89
631.643	4.38
631.773	5.51
631.904	0.31
632.034	-9.45
632.164	1.1
632.295	-3.49
632.425	5.91
632.556	-1.28
632.686	-0.99
632.816	3.01
632.947	8.52
633.077	0.7
633.208	6.9
633.338	4.01
633.468	-0.49
633.599	3.28
633.729	2.11
633.859	-0.69
633.99	-2
634.12	-3.68
634.25	-0.59
634.381	-2.09
634.511	7.31
634.641	7.3
634.772	-1.39
634.902	6.21
635.032	8.7
635.163	-9.3
635.293	3.2
635.423	0.91
635.553	0.51
635.684	5.18
635.814	-0.19
635.944	8.21
636.074	7
636.205	2.31
636.335	12.51
636.465	15.55
636.595	12.61
636.726	26.57
636.856	8.41
636.986	-12.7
637.116	7.02
637.246	4.4
637.377	-1.09
637.507	5
637.637	4.7
637.767	3.3
637.897	1.7
638.027	14.9
638.158	12.52
638.288	31.42
638.418	15.76
638.548	-7.31
638.678	10.39
638.808	2.1
638.938	-5.26
639.069	3.9
639.199	-5.7
639.329	-8.48
639.459	1.41
639.589	6.01
639.719	3.51
639.849	-7.58
639.979	0.31
640.109	4.01
640.239	6.22
640.369	0.9
640.5	14.73
640.63	-1.19
640.76	17.41
640.89	24.71
641.02	22.22
641.15	21.4
641.28	37.8
641.41	49.03
641.54	36.99
641.67	14.44
641.8	6.41
641.93	6.69
642.06	6.7
642.19	-6.28
642.32	1.01
642.45	-1.58
642.58	13.57
642.71	4.1
642.84	9.51
642.97	5.91
643.1	4.39
643.229	4
643.359	-4.6
643.489	-3.27
643.619	4.48
643.749	-0.19
643.879	7.01
644.009	-1.59
644.139	11.92
644.269	4.31
644.399	20.69
644.529	6.18
644.658	7.98
644.788	-4.68
644.918	15.2
645.048	9.3
645.178	-1.39
645.308	5.79
645.438	7.1
645.567	11.04
645.697	5.97
645.827	5.5
645.957	-5.18
646.087	9.28
646.216	8.99
646.346	14.2
646.476	19.92
646.606	11.17
646.736	3.31
646.865	3.7
646.995	14.29
647.125	6.57
647.255	-4.86
647.384	9.69
647.514	4.81
647.644	2.99
647.774	2.01
647.903	14.08
648.033	-0.29
648.163	12.18
648.293	-13.94
648.422	0.61
648.552	-8.19
648.682	-0.39
648.811	-2.98
648.941	0.91
649.071	-3.59
649.2	6.36
649.33	-0.99
649.46	-5
649.589	1.01
649.719	0.51
649.849	9.06
649.978	2.61
650.108	-3.09
650.238	3.69
650.367	-4.16
650.497	6.61
650.626	13.11
650.756	7.16
650.886	1.41
651.015	9.39
651.145	5.89
651.274	-0.19
651.404	7.18
651.534	11.7
651.663	16.01
651.793	15.94
651.922	8.45
652.052	-11.18
652.181	-2.09
652.311	12.43
652.44	12.01
652.57	4.8
652.699	-1.89
652.829	7.29
652.958	-0.49
653.088	15.05
653.217	14.23
653.347	13.21
653.476	20.5
653.606	4.41
653.735	12.86
653.865	7.46
653.994	8.68
654.124	-1.59
654.253	-3.59
654.383	12.59
654.512	4.89
654.642	10.92
654.771	5.22
654.9	2.7
655.03	3.19
655.159	-1.79
655.289	12.69
655.418	7.96
655.547	1.4
655.677	8.08
655.806	1.5
655.936	14.6
656.065	12.67
656.194	5.3
656.324	8.13
656.453	7.8
656.582	1.2
656.712	2.11
656.841	4.01
656.97	3.4
657.1	5.87
657.229	2.91
657.358	-0.69
657.488	10.67
657.617	4
657.746	-1.29
657.876	-0.29
658.005	-6.8
658.134	-8.47
658.263	0.61
658.393	0.61
658.522	1.1
658.651	12.7
658.78	-2.89
658.91	-14.77
659.039	8
659.168	18.82
659.297	15.12
659.427	8.82
659.556	3.39
659.685	14.41
659.814	10.02
659.943	10.3
660.073	22.79
660.202	23.99
660.331	34.26
660.46	16.1
660.589	17.17
660.719	-2.38
660.848	12.64
660.977	5
661.106	-0.69
661.235	8.57
661.364	3.41
661.493	8
661.623	8.5
661.752	5.28
661.881	4.09
662.01	6.99
662.139	1.4
662.268	-3.59
662.397	1.21
662.526	4.7
662.655	2.6
662.784	1
662.913	-9.56
663.043	2.3
663.172	6.56
663.301	0.9
663.43	-4.68
663.559	1.01
663.688	0.41
663.817	-4.88
663.946	13.22
664.075	-12.53
664.204	0.6
664.333	-4.29
664.462	-9.16
664.591	-0.59
664.72	-3.27
664.849	0.51
664.978	14.28
665.107	9.6
665.236	15.65
665.365	4.39
665.494	11.81
665.623	21.06
665.751	15.02
665.88	22
666.009	15.62
666.138	14.4
666.267	21.26
666.396	14.9
666.525	8.3
666.654	2.71
666.783	3.5
666.912	9.57
667.041	2.1
667.169	9.09
667.298	3.99
667.427	14.92
667.556	17.34
667.685	15.91
667.814	1.11
667.943	7.49
668.071	1.81
668.2	15.14
668.329	17.06
668.458	7.37
668.587	-2.59
668.716	3.31
668.844	1.4
668.973	2.29
669.102	11.71
669.231	9.59
669.359	16.57
669.488	17.27
669.617	32.87
669.746	14.23
669.875	6.09
670.003	5.71
670.132	-1.79
670.261	5.21
670.389	4.61
670.518	0.51
670.647	1.31
670.776	2.3
670.904	0.61
671.033	9.27
671.162	14.51
671.29	-3.99
671.419	12.79
671.548	8.62
671.676	3.01
671.805	18.92
671.934	9.65
672.062	7.58
672.191	11
672.32	11.39
672.448	2.1
672.577	4.38
672.706	9.42
672.834	4.51
672.963	13.62
673.092	7.28
673.22	20.13
673.349	-2.79
673.477	13.26
673.606	14.88
673.735	29.12
673.863	13.85
673.992	25.54
674.12	34.15
674.249	25.16
674.377	42.26
674.506	63
674.634	77.97
674.763	96.34
674.892	120.56
675.02	164.73
675.149	190.59
675.277	130.58
675.406	55.87
675.534	23.56
675.663	19.78
675.791	1.6
675.92	7.41
676.048	15.97
676.176	28.13
676.305	23.65
676.433	25.39
676.562	31.29
676.69	14.65
676.819	9.69
676.947	3.21
677.076	-9.92
677.204	-0.19
677.332	11.78
677.461	5.51
677.589	1.5
677.718	9.38
677.846	7.02
677.975	5.49
678.103	-17.96
678.231	-3.38
678.36	7.8
678.488	-4.29
678.616	4.7
678.745	9.89
678.873	5
679.001	-0.39
679.13	6.32
679.258	7.18
679.386	-2.48
679.515	-4.59
679.643	13.79
679.771	12.16
679.9	-0.19
680.028	2.41
680.156	2.9
680.285	2.3
680.413	4.02
680.541	1.11
680.669	7.67
680.798	-0.49
680.926	8.91
681.054	5.8
681.182	1.5
681.311	19
681.439	11.77
681.567	-0.09
681.695	9.6
681.824	12.93
681.952	-13.52
682.08	1.61
682.208	3.51
682.336	5.01
682.465	0.31
682.593	5.2
682.721	6.11
682.849	20.1
682.977	9.91
683.105	2.6
683.234	4.6
683.362	7.07
683.49	-3.39
683.618	-4.89
683.746	3.29
683.874	-3.19
684.002	4.01
684.131	2.11
684.259	10.17
684.387	2.21
684.515	10.42
684.643	-8.58
684.771	3.5
684.899	-8.58
685.027	0.81
685.155	18.07
685.283	9.45
685.411	21.47
685.539	1.7
685.667	17.59
685.796	12.48
685.924	30.11
686.052	21.28
686.18	42.51
686.308	40.34
686.436	68.92
686.564	71.92
686.692	107.91
686.82	127.15
686.948	165.69
687.076	137.76
687.204	59.14
687.332	26.66
687.459	20.19
687.587	23.34
687.715	20.89
687.843	19.89
687.971	27.03
688.099	14.79
688.227	25.74
688.355	34.6
688.483	33.73
688.611	40.41
688.739	31.72
688.867	15.07
688.995	0.5
689.122	2.51
689.25	2.91
689.378	0.21
689.506	-2.68
689.634	-0.69
689.762	-1.59
689.89	4.49
690.018	6.68
690.145	2.4
690.273	5
690.401	8.47
690.529	-8.69
690.657	15.38
690.784	-0.19
690.912	13.45
691.04	-2.97
691.168	9
691.296	0.01
691.423	3.29
691.551	9.08
691.679	3.41
691.807	6.19
691.935	8.31
692.062	13.24
692.19	16.7
692.318	20.48
692.446	25.72
692.573	20.12
692.701	21.75
692.829	23.62
692.956	31.05
693.084	35.17
693.212	42.29
693.34	41.58
693.467	60.36
693.595	72.77
693.723	65.75
693.85	29.79
693.978	25.79
694.106	12.87
694.233	13.68
694.361	15.25
694.489	22.09
694.616	35.91
694.744	54.72
694.871	48.61
694.999	57.17
695.127	57.02
695.254	61.65
695.382	74.25
695.509	90.36
695.637	112.63
695.765	154.82
695.892	181.01
696.02	217.4
696.147	258.41
696.275	304.69
696.403	378.55
696.53	283.67
696.658	108.31
696.785	22.99
696.913	6.7
697.04	20.04
697.168	15.65
697.295	0.01
697.423	12.78
697.55	7.07
697.678	-0.49
697.805	0.61
697.933	7.7
698.06	-2.18
698.188	0.11
698.315	4.92
698.443	6.91
698.57	12.29
698.698	18.69
698.825	14.69
698.952	6.31
699.08	12.24
699.207	8.22
699.335	1.31
699.462	3.21
699.59	7.72
699.717	-4.77
699.844	7.9
699.972	0.41
700.099	-1.58
700.227	-3.66
700.354	7.6
700.481	0.61
700.609	12.13
700.736	10.99
700.863	0.71
700.991	6.8
701.118	5.98
701.245	3.49
701.373	3.32
701.5	13.75
701.627	15.17
701.755	7.58
701.882	16.73
702.009	23.61
702.137	30.67
702.264	50.09
702.391	56.97
702.518	70.18
702.646	77.89
702.773	86.38
702.9	101.42
703.027	82.67
703.155	26.6
703.282	18.36
703.409	9.69
703.536	8.81
703.664	3.1
703.791	4.2
703.918	8.09
704.045	13.43
704.172	18.01
704.3	20.8
704.427	18.91
704.554	27.38
704.681	10.51
704.808	22.93
704.936	2.61
705.063	28.05
705.19	50.64
705.317	46.19
705.444	51.34
705.571	69.57
705.698	97.68
705.826	102.72
705.953	150.1
706.08	182.82
706.207	200.24
706.334	266.62
706.461	323.01
706.588	402.32
706.715	338.22
706.842	174.78
706.969	59.28
707.096	14.32
707.224	16.95
707.351	19.53
707.478	7.37
707.605	2.4
707.732	11.39
707.859	13.18
707.986	9.73
708.113	3.31
708.24	0.51
708.367	9.09
708.494	1.8
708.621	13.21
708.748	5.89
708.875	4.08
709.002	-0.59
709.129	-2.69
709.256	0.9
709.383	3.59
709.51	-4.59
709.637	16.66
709.764	24.13
709.89	5.29
710.017	23.09
710.144	15.93
710.271	3.69
710.398	8.45
710.525	16.04
710.652	30.34
710.779	13.65
710.906	12.05
711.033	9.59
711.16	-1.49
711.286	2.1
711.413	8.95
711.54	11.76
711.667	16.11
711.794	11.91
711.921	9.95
712.048	15.31
712.174	20.11
712.301	26.73
712.428	34.96
712.555	20.24
712.682	2.81
712.808	1.01
712.935	12.38
713.062	4.11
713.189	4.5
713.316	0.9
713.442	15.87
713.569	10.7
713.696	9.41
713.823	19.21
713.949	23.53
714.076	36.58
714.203	46.16
714.33	34.26
714.456	43.3
714.583	56.49
714.71	37.73
714.837	27.43
714.963	11.57
715.09	21.17
715.217	16.49
715.343	21.03
715.47	8.07
715.597	21.31
715.723	15.34
715.85	17.25
715.977	7.59
716.103	13.27
716.23	16.58
716.357	10.28
716.483	8.48
716.61	7.61
716.736	3
716.863	9.27
716.99	-1.08
717.116	10.7
717.243	5.1
717.369	21.1
717.496	11.86
717.623	13.61
717.749	-1.59
717.876	-11.97
718.002	3.79
718.129	12.32
718.255	9.3
718.382	5.18
718.509	4.88
718.635	12.37
718.762	-4.08
718.888	5.27
719.015	14.97
719.141	3
719.268	10.5
719.394	12.39
719.521	12.4
719.647	15.83
719.774	24.58
719.9	30.25
720.027	42.24
720.153	47.73
720.279	49.59
720.406	68.41
720.532	74.27
720.659	72.23
720.785	35.18
720.912	4.59
721.038	-2.39
721.165	-3.79
721.291	13.71
721.417	11.97
721.544	3.5
721.67	3.11
721.797	-1.79
721.923	5.39
722.049	13.61
722.176	3.01
722.302	13.19
722.428	10.08
722.555	-0.69
722.681	10.39
722.807	17.79
722.934	7.21
723.06	17.98
723.186	12.56
723.313	12.92
723.439	-6.61
723.565	7.31
723.692	14.01
723.818	-1.29
723.944	-1.89
724.07	4.67
724.197	-8.6
724.323	6.9
724.449	5.98
724.576	5.6
724.702	6.67
724.828	4.39
724.954	0.21
725.081	6.27
725.207	13.51
725.333	14.4
725.459	12.98
725.585	15.68
725.712	18.1
725.838	22.59
725.964	37.72
726.09	44.6
726.216	61.78
726.343	82.15
726.469	75.34
726.595	66.05
726.721	63.18
726.847	100.61
726.973	102.39
727.099	115.51
727.226	113.77
727.352	52.62
727.478	6.99
727.604	6.18
727.73	14.72
727.856	8.41
727.982	21.22
728.108	11.58
728.234	4.92
728.361	24.86
728.487	7.2
728.613	14.79
728.739	9.8
728.865	-0.99
728.991	3.89
729.117	11.9
729.243	2.61
729.369	0.01
729.495	6.27
729.621	16.24
729.747	5.48
729.873	6.21
729.999	23.12
730.125	14.86
730.251	27.18
730.377	28.35
730.503	36.07
730.629	27.99
730.755	49.67
730.881	54.65
731.007	71.25
731.133	61.26
731.259	40.8
731.385	39.03
731.511	49.27
731.637	16.18
731.763	9.88
731.888	3.8
732.014	8.08
732.14	9
732.266	15.24
732.392	4.69
732.518	9.08
732.644	5.91
732.77	12.09
732.896	18.37
733.021	2.7
733.147	15.77
733.273	12.49
733.399	15.89
733.525	17.84
733.651	15.28
733.777	22.53
733.902	25.33
734.028	36.52
734.154	35.26
734.28	45.7
734.406	54.55
734.531	62.37
734.657	73.39
734.783	79.58
734.909	97.28
735.034	117.65
735.16	145.43
735.286	103.95
735.412	58.21
735.537	40.63
735.663	51.99
735.789	52.02
735.915	71.19
736.04	103.14
736.166	104.6
736.292	146.12
736.418	158.18
736.543	204.38
736.669	218.12
736.795	252.17
736.92	306.48
737.046	416.37
737.172	383.18
737.297	275.64
737.423	271.82
737.549	301.94
737.674	353.6
737.8	400.15
737.926	469.87
738.051	536.37
738.177	709.36
738.302	744.41
738.428	365.19
738.554	114.88
738.679	49.23
738.805	42.02
738.93	39.71
739.056	48.93
739.182	40.95
739.307	13.39
739.433	29.72
739.558	7.87
739.684	12.49
739.809	11.99
739.935	24.2
740.06	14.34
740.186	24.07
740.311	18.17
740.437	11.69
740.562	22.27
740.688	21.37
740.813	27.09
740.939	33.1
741.064	35.82
741.19	41.65
741.315	32.72
741.441	20.1
741.566	20.79
741.692	14.82
741.817	39.1
741.943	27.36
742.068	38.52
742.194	40.4
742.319	52.86
742.444	52.05
742.57	38.08
742.695	36.67
742.821	30.72
742.946	25.23
743.071	44.11
743.197	49.34
743.322	45.01
743.448	48.77
743.573	38.39
743.698	23.91
743.824	4.4
743.949	15.88
744.074	13.37
744.2	0.61
744.325	20.81
744.45	19.97
744.576	3.11
744.701	16.59
744.826	9.37
744.952	5.51
745.077	18.67
745.202	11.67
745.327	10.89
745.453	23.75
745.578	27.86
745.703	20.24
745.828	13.97
745.954	19.77
746.079	19.69
746.204	14.81
746.329	18.85
746.455	19.22
746.58	34.39
746.705	30.11
746.83	23.6
746.956	30.11
747.081	40.47
747.206	41.66
747.331	43.21
747.456	61.2
747.582	58.36
747.707	68.63
747.832	72.77
747.957	77.27
748.082	92.23
748.207	121.05
748.332	137.62
748.458	136.01
748.583	172.76
748.708	216.2
748.833	261.63
748.958	337.36
749.083	468.02
749.208	619.72
749.333	819.34
749.458	1041.1
749.584	1179.22
749.709	1429.62
749.834	1645.98
749.959	1881.65
750.084	2297.55
750.209	3172.47
750.334	2638.97
750.459	1273.48
750.584	779.09
750.709	782.27
750.834	784.17
750.959	890.57
751.084	963.71
751.209	1204.75
751.334	1515.85
751.459	891.41
751.584	269.68
751.709	93.1
751.834	44.46
751.959	34.61
752.084	31.14
752.209	33.05
752.334	3.6
752.459	20.82
752.584	17.39
752.709	8.4
752.834	12.77
752.959	1.9
753.083	9.07
753.208	5.79
753.333	12.51
753.458	4.4
753.583	20.05
753.708	15.77
753.833	24.13
753.958	-7.6
754.083	19.86
754.207	13.06
754.332	25.26
754.457	14.2
754.582	18.67
754.707	6.39
754.832	1.61
754.956	13.88
755.081	5.18
755.206	7.99
755.331	8.16
755.456	11.5
755.581	7.19
755.705	21.22
755.83	-1.69
755.955	10.76
756.08	8.28
756.204	15.7
756.329	5.51
756.454	10.48
756.579	5.7
756.703	5.7
756.828	7.49
756.953	19.78
757.078	12.71
757.202	21.27
757.327	3
757.452	3
757.576	11.27
757.701	3.8
757.826	10.4
757.951	13.7
758.075	11.57
758.2	17.06
758.325	-2.29
758.449	10.18
758.574	23.09
758.699	14.98
758.823	15.94
758.948	12.65
759.072	2.19
759.197	16.28
759.322	8.7
759.446	7.78
759.571	16.38
759.695	18.11
759.82	15.53
759.945	13.96
760.069	12.41
760.194	19.63
760.318	26.45
760.443	22.81
760.568	15.89
760.692	39.04
760.817	19.82
760.941	33.23
761.066	46.1
761.19	40.96
761.315	65.91
761.439	60.85
761.564	81.88
761.688	99.51
761.813	131.36
761.937	183.62
762.062	245.82
762.186	325.78
762.311	462.56
762.435	622.59
762.56	777.67
762.684	940.8
762.809	1113.15
762.933	1223.48
763.057	1335.27
763.182	1617.61
763.306	2261.39
763.431	2284.76
763.555	910
763.68	259.18
763.804	106.56
763.928	61.72
764.053	35.46
764.177	28.83
764.302	25.71
764.426	14.3
764.55	23.21
764.675	11.78
764.799	14.44
764.923	14.82
765.048	20.03
765.172	17.82
765.296	19.61
765.421	15.71
765.545	35.41
765.669	13.91
765.794	14.25
765.918	15.96
766.042	7.67
766.167	16.47
766.291	16.96
766.415	14.95
766.539	21.89
766.664	19.08
766.788	20.48
766.912	26.61
767.036	14.67
767.161	14.05
767.285	3.99
767.409	8.92
767.533	5.81
767.658	9.98
767.782	5.47
767.906	13.12
768.03	12.07
768.154	16.28
768.279	20.06
768.403	6.08
768.527	6.38
768.651	2.8
768.775	13.92
768.899	8.68
769.024	7.77
769.148	6.47
769.272	11.87
769.396	7.96
769.52	9.71
769.644	1.81
769.768	18.22
769.892	13.55
770.017	21.6
770.141	16.05
770.265	21.98
770.389	34.61
770.513	46.19
770.637	33.67
770.761	38.66
770.885	57.91
771.009	94.63
