Data from 191228_Ar05mT_500W_ALA10_8000ms_Subt2_02-22-25-500.txt Node
Date: Sun Dec 29 02:22:25 KST 2019
User: L102
Spectrometer: HR4D2517
Trigger mode: 4
Integration Time (sec): 8.000000E0
Scans to average: 1
Electric dark correction enabled: true
Nonlinearity correction enabled: true
Boxcar width: 0
XAxis mode: Wavelengths
Number of Pixels in Spectrum: 3648
>>>>>Begin Spectral Data<<<<<
597.141	2.32
597.272	2.32
597.404	2.32
597.536	2.03
597.668	7.73
597.8	-3.69
597.932	10.95
598.064	2.91
598.196	-2.27
598.328	1.52
598.46	-8.25
598.591	1.81
598.723	2.03
598.855	7.03
598.987	-5.29
599.119	-0.97
599.251	-2.78
599.383	-3.08
599.514	2.31
599.646	11.92
599.778	6.33
599.91	8.15
600.042	3.2
600.173	6.42
600.305	11.4
600.437	12.54
600.569	11.96
600.701	15.75
600.832	20.25
600.964	8.72
601.096	24.39
601.228	18.11
601.359	13.53
601.491	3.12
601.623	11.3
601.755	19.16
601.886	14.06
602.018	13.9
602.15	36.6
602.281	38.07
602.413	35.45
602.545	48.91
602.677	49.83
602.808	88.38
602.94	128.22
603.072	121.79
603.203	55.07
603.335	21.68
603.467	6.74
603.598	25.73
603.73	22.45
603.862	35.13
603.993	72.48
604.125	69.48
604.256	57.13
604.388	28.44
604.52	0.92
604.651	2.02
604.783	-1.98
604.915	20.88
605.046	26.61
605.178	14.44
605.309	9.91
605.441	24.1
605.572	17.91
605.704	22.23
605.836	14.55
605.967	14.57
606.099	-7.88
606.23	8.5
606.362	13.62
606.493	9.2
606.625	-2.07
606.756	7.13
606.888	6.04
607.019	-5.99
607.151	1.02
607.282	13.11
607.414	7.7
607.545	-3.57
607.677	2.42
607.808	7.75
607.94	8.76
608.071	2.41
608.203	1.73
608.334	5.22
608.466	17.59
608.597	-0.88
608.728	12.61
608.86	12.91
608.991	6.43
609.123	15.13
609.254	9.61
609.386	11.4
609.517	11.06
609.648	28.89
609.78	21.63
609.911	20.26
610.043	19.91
610.174	27.99
610.305	35.1
610.437	29.5
610.568	8.08
610.699	7.88
610.831	1.53
610.962	2.12
611.093	5.51
611.225	3.89
611.356	15.44
611.487	7.14
611.619	8.37
611.75	2.12
611.881	0.72
612.013	12.7
612.144	4.11
612.275	-2.76
612.406	12.01
612.538	7.35
612.669	11.39
612.8	1.12
612.931	4.53
613.063	2.23
613.194	5.62
613.325	5.41
613.456	21.12
613.588	6.64
613.719	0.32
613.85	2.62
613.981	6.22
614.112	22.67
614.244	32.69
614.375	39.12
614.506	29.11
614.637	1.42
614.768	13.95
614.9	19.69
615.031	12.24
615.162	11.13
615.293	15.76
615.424	13.46
615.555	5.03
615.686	5.42
615.818	15.9
615.949	5
616.08	8.75
616.211	13.53
616.342	21.13
616.473	14.8
616.604	19.47
616.735	30.61
616.866	35.32
616.998	40.63
617.129	32.78
617.26	28.83
617.391	5.4
617.522	12.53
617.653	23.64
617.784	3.32
617.915	-4.56
618.046	0.52
618.177	0.52
618.308	6.02
618.439	3.31
618.57	6.88
618.701	4.63
618.832	2.83
618.963	-6.37
619.094	-5.86
619.225	2.72
619.356	-1.98
619.487	-6.25
619.618	6.89
619.749	15.71
619.88	6.21
620.011	-3.37
620.142	13.59
620.273	4.52
620.404	9.22
620.535	7.1
620.665	11.41
620.796	10.52
620.927	28.65
621.058	22.89
621.189	26.43
621.32	26.76
621.451	21.55
621.582	11.65
621.713	22.63
621.844	-10.49
621.974	4.03
622.105	13.7
622.236	-1.57
622.367	-2.68
622.498	4.93
622.629	0.22
622.759	-2.77
622.89	1.83
623.021	0.42
623.152	-3.27
623.283	5.61
623.414	1.83
623.544	-6.87
623.675	-2.76
623.806	4.4
623.937	2.22
624.067	-1.78
624.198	6.2
624.329	12
624.46	1.72
624.59	11.61
624.721	10.98
624.852	-1.07
624.983	6.91
625.113	-3.28
625.244	2.5
625.375	3.63
625.506	6.43
625.636	1.12
625.767	1.32
625.898	7.29
626.028	0.52
626.159	-0.38
626.29	-4.85
626.42	12.51
626.551	3.33
626.682	6.12
626.812	2.11
626.943	2.82
627.074	0.92
627.204	-3.98
627.335	5.91
627.466	6.27
627.596	10.54
627.727	-0.38
627.857	-9.85
627.988	5.92
628.119	6.22
628.249	2.72
628.38	12.45
628.51	-2.17
628.641	-3.17
628.772	11.24
628.902	2.71
629.033	1.12
629.163	9.23
629.294	27.03
629.424	34.61
629.555	42.26
629.685	19.63
629.816	0.52
629.946	-0.18
630.077	13.94
630.207	7.94
630.338	29.37
630.468	29.65
630.599	36.02
630.729	10.24
630.86	9.64
630.99	12.82
631.121	9.61
631.251	3.82
631.382	-7.59
631.512	0.72
631.643	12.74
631.773	6.43
631.904	-2.97
632.034	-7.44
632.164	0.42
632.295	-3.08
632.425	1.42
632.556	-6.32
632.686	-0.28
632.816	3.53
632.947	3.73
633.077	4.8
633.208	9.91
633.338	-1.48
633.468	-0.28
633.599	6.38
633.729	8.73
633.859	-9.49
633.99	6.74
634.12	-1.57
634.25	8.13
634.381	7.23
634.511	1.42
634.641	8.31
634.772	-7.65
634.902	4.12
635.032	5.22
635.163	-0.58
635.293	4.61
635.423	3.32
635.553	6.12
635.684	3.11
635.814	5
635.944	9.52
636.074	6.62
636.205	4.52
636.335	10.14
636.465	14.16
636.595	6.82
636.726	12
636.856	23.83
636.986	-7.88
637.116	12.15
637.246	0.62
637.377	4.7
637.507	10.92
637.637	6.42
637.767	4.71
637.897	8.36
638.027	13.02
638.158	15.74
638.288	26.84
638.418	16.67
638.548	-6.49
638.678	4.02
638.808	12.77
638.938	-6.63
639.069	16.08
639.199	-2.28
639.329	-5.07
639.459	4.84
639.589	-8.58
639.719	0.42
639.849	6.62
639.979	-0.88
640.109	7.13
640.239	9.15
640.369	0.22
640.5	5.89
640.63	-3.18
640.76	19.92
640.89	13.02
641.02	21.24
641.15	25.81
641.28	48.29
641.41	54.94
641.54	59.68
641.67	28.29
641.8	10.02
641.93	4.01
642.06	3.52
642.19	2.72
642.32	4.01
642.45	1.81
642.58	8.9
642.71	4.22
642.84	5.63
642.97	1.92
643.1	2.51
643.229	1.82
643.359	-4.68
643.489	2.51
643.619	5.98
643.749	5.92
643.879	8.43
644.009	-0.28
644.139	13.73
644.269	-1.38
644.399	2.92
644.529	8.39
644.658	3.21
644.788	-0.28
644.918	10.72
645.048	6.72
645.178	-2.87
645.308	3.21
645.438	5.32
645.567	14.53
645.697	13.44
645.827	10.11
645.957	9.6
646.087	9.6
646.216	21.18
646.346	14.51
646.476	17.14
646.606	17.17
646.736	7.92
646.865	3.02
646.995	12.21
647.125	0.82
647.255	-0.87
647.384	0.82
647.514	-1.18
647.644	6.69
647.774	13.33
647.903	15.19
648.033	-0.88
648.163	10.5
648.293	-0.97
648.422	-4.28
648.552	-4.58
648.682	-1.67
648.811	-4.76
648.941	-0.88
649.071	1.02
649.2	8.36
649.33	6.53
649.46	0.42
649.589	6.82
649.719	3.72
649.849	8.57
649.978	-4.08
650.108	0.72
650.238	9.19
650.367	1.22
650.497	0.72
650.626	-1.18
650.756	11.85
650.886	5.22
651.015	0.92
651.145	4.91
651.274	12.35
651.404	11.77
651.534	4.92
651.663	6.82
651.793	2.51
651.922	7.27
652.052	-4.37
652.181	3.12
652.311	7.98
652.44	3.52
652.57	-0.18
652.699	-4.88
652.829	2.32
652.958	-1.97
653.088	9.65
653.217	13.55
653.347	18.63
653.476	18.62
653.606	5.32
653.735	18.66
653.865	-4.95
653.994	0.52
654.124	10.04
654.253	3.82
654.383	14.9
654.512	10.29
654.642	1.63
654.771	-7.79
654.9	-0.97
655.03	-2.17
655.159	-3.38
655.289	11.71
655.418	4.59
655.547	3.9
655.677	6.8
655.806	10.98
655.936	15.21
656.065	18.66
656.194	10.1
656.324	6.24
656.453	6.22
656.582	0.82
656.712	-1.18
656.841	6.93
656.97	12.8
657.1	8.66
657.229	-5.88
657.358	-2.78
657.488	8.19
657.617	-9.36
657.746	1.52
657.876	1.42
658.005	-0.08
658.134	-3.17
658.263	-6.87
658.393	2.22
658.522	-0.47
658.651	10.82
658.78	1.02
658.91	-4.27
659.039	11.02
659.168	13.16
659.297	11.43
659.427	9.93
659.556	11.17
659.685	4.32
659.814	13.75
659.943	5.72
660.073	31.16
660.202	24.91
660.331	30.37
660.46	31.21
660.589	20.68
660.719	4.7
660.848	10.75
660.977	-1.58
661.106	-11.78
661.235	10.57
661.364	7.62
661.493	3.82
661.623	5.72
661.752	3.6
661.881	-4.16
662.01	5.01
662.139	-4.26
662.268	5.02
662.397	-3.98
662.526	2.72
662.655	-2.07
662.784	1.61
662.913	0.12
663.043	-3.57
663.172	7.96
663.301	0.22
663.43	-10.36
663.559	3.93
663.688	0.02
663.817	5.9
663.946	14.33
664.075	-0.98
664.204	0.42
664.333	-1.48
664.462	3.21
664.591	-1.78
664.72	-0.37
664.849	3.11
664.978	14.8
665.107	10.31
665.236	7.8
665.365	5.89
665.494	8.92
665.623	22.98
665.751	20.5
665.88	22.01
666.009	16.84
666.138	19.52
666.267	27.93
666.396	9.22
666.525	7.52
666.654	5.83
666.783	26.46
666.912	8.19
667.041	11.71
667.169	17.89
667.298	12.07
667.427	15.53
667.556	22.96
667.685	17.43
667.814	7.61
667.943	6.21
668.071	-0.28
668.2	8.24
668.329	14.19
668.458	5.3
668.587	4.93
668.716	7.93
668.844	8.17
668.973	0.92
669.102	8.42
669.231	12
669.359	13.29
669.488	15.88
669.617	18.5
669.746	22.56
669.875	18.17
670.003	8.53
670.132	1.82
670.261	7.73
670.389	-1.28
670.518	2.81
670.647	4.52
670.776	-9.36
670.904	-8.97
671.033	5.3
671.162	12.43
671.29	6.11
671.419	19.8
671.548	5.43
671.676	3.23
671.805	17.55
671.934	7.68
672.062	18.75
672.191	-1.38
672.32	11.61
672.448	10.47
672.577	10.47
672.706	11.63
672.834	4.02
672.963	10.53
673.092	5
673.22	12.83
673.349	8.13
673.477	18.56
673.606	19.98
673.735	28.33
673.863	17.98
673.992	37.23
674.12	41.63
674.249	35.86
674.377	57.07
674.506	79.02
674.634	89.59
674.763	128.03
674.892	147.12
675.02	184.98
675.149	237.56
675.277	151.36
675.406	74.66
675.534	41.64
675.663	24.69
675.791	14.1
675.92	11.43
676.048	21.67
676.176	24.14
676.305	32.75
676.433	35.71
676.562	37.8
676.69	20.34
676.819	6.01
676.947	3.92
677.076	-12.61
677.204	-0.28
677.332	15.49
677.461	4.22
677.589	7.8
677.718	8.7
677.846	7.84
677.975	6.1
678.103	-18.54
678.231	9.48
678.36	10.12
678.488	3.22
678.616	7.61
678.745	-3.57
678.873	-3.47
679.001	-0.48
679.13	-1.68
679.258	7.49
679.386	8.7
679.515	-4.37
679.643	4.12
679.771	2.21
679.9	-1.28
680.028	7.83
680.156	9.81
680.285	12.78
680.413	9.94
680.541	0.12
680.669	10.27
680.798	4.71
680.926	5.13
681.054	12.32
681.182	7.69
681.311	3.5
681.439	11.49
681.567	12.84
681.695	8.52
681.824	6.73
681.952	-1.58
682.08	-7
682.208	-2.38
682.336	7.22
682.465	7.12
682.593	2.12
682.721	14.92
682.849	20.91
682.977	12.42
683.105	10.51
683.234	6.02
683.362	4.3
683.49	0.42
683.618	-10.08
683.746	-3.65
683.874	-0.88
684.002	3.22
684.131	11.23
684.259	2.61
684.387	8.82
684.515	14.04
684.643	-5.47
684.771	6.6
684.899	2.92
685.027	2.93
685.155	18.09
685.283	17.31
685.411	18.89
685.539	10
685.667	21.8
685.796	13.39
685.924	44.78
686.052	32.38
686.18	57.14
686.308	64.77
686.436	81.3
686.564	93.13
686.692	128.46
686.82	150.82
686.948	189.44
687.076	167.65
687.204	85.25
687.332	34.67
687.459	26.39
687.587	20.76
687.715	25.1
687.843	34.73
687.971	30.24
688.099	27.29
688.227	38.13
688.355	48.31
688.483	45.19
688.611	44.31
688.739	45.94
688.867	14.29
688.995	9.17
689.122	-0.08
689.25	-4.58
689.378	2.6
689.506	-4.05
689.634	-1.98
689.762	3.12
689.89	1.82
690.018	9.49
690.145	2.62
690.273	10.2
690.401	5.4
690.529	5.32
690.657	11.9
690.784	8.81
690.912	3.61
691.04	5.49
691.168	13.02
691.296	9.1
691.423	8.97
691.551	9.1
691.679	8.42
691.807	7.01
691.935	17.52
692.062	19.82
692.19	24.71
692.318	27.19
692.446	25.04
692.573	14.75
692.701	28.77
692.829	38.45
692.956	37.75
693.084	36.59
693.212	48.7
693.34	52.09
693.467	84.96
693.595	80.96
693.723	81.93
693.85	40.03
693.978	26.01
694.106	17.78
694.233	21.68
694.361	24.34
694.489	33.61
694.616	47.2
694.744	50.63
694.871	50.02
694.999	70.12
695.127	69.7
695.254	87.58
695.382	91.54
695.509	119.3
695.637	144.25
695.765	199.54
695.892	232.23
696.02	280.48
696.147	326.16
696.275	390.57
696.403	480.27
696.53	345.32
696.658	132.56
696.785	36.9
696.913	15.4
697.04	17.96
697.168	15.36
697.295	9.1
697.423	17.29
697.55	9.47
697.678	-4.46
697.805	10.8
697.933	3.72
698.06	-4.65
698.188	2.22
698.315	2.33
698.443	3.32
698.57	10.7
698.698	15.33
698.825	11.01
698.952	17.23
699.08	7.55
699.207	7.94
699.335	0.92
699.462	6.33
699.59	16.16
699.717	-2.17
699.844	8.72
699.972	2.62
700.099	2.91
700.227	5.48
700.354	-0.58
700.481	10.5
700.609	8.17
700.736	12.2
700.863	7.81
700.991	13.7
701.118	10.77
701.245	4.1
701.373	22.6
701.5	19.84
701.627	15.88
701.755	11.78
701.882	20.66
702.009	36.52
702.137	47.71
702.264	67.75
702.391	78.58
702.518	87.5
702.646	106.36
702.773	112.53
702.9	131.69
703.027	102.92
703.155	20.12
703.282	12.59
703.409	6.61
703.536	15.52
703.664	12.4
703.791	5.52
703.918	1.72
704.045	24.36
704.172	17.52
704.3	19.51
704.427	18.62
704.554	29.69
704.681	13.12
704.808	19.46
704.936	30.11
705.063	39.85
705.19	55.93
705.317	61.37
705.444	66.27
705.571	85.59
705.698	112.64
705.826	129.25
705.953	185.94
706.08	227.49
706.207	264.04
706.334	332.95
706.461	389.67
706.588	493.04
706.715	419.04
706.842	210.38
706.969	64.19
707.096	20.14
707.224	10.29
707.351	8.93
707.478	-0.08
707.605	15.57
707.732	17.9
707.859	7.51
707.986	12.85
708.113	4.13
708.24	-0.18
708.367	6.61
708.494	8.39
708.621	13.82
708.748	-0.87
708.875	-1.37
709.002	-2.27
709.129	-6.67
709.256	3.31
709.383	6.69
709.51	-4.77
709.637	14.57
709.764	9.69
709.89	10.58
710.017	12.01
710.144	28.76
710.271	9.47
710.398	6.97
710.525	25.02
710.652	26.66
710.779	14.27
710.906	10.07
711.033	10.51
711.16	3.02
711.286	4.41
711.413	10.66
711.54	13.97
711.667	10.43
711.794	8.12
711.921	15.04
712.048	20.63
712.174	17.12
712.301	38.62
712.428	34.48
712.555	28.27
712.682	5.12
712.808	-0.88
712.935	12.6
713.062	17.23
713.189	1.92
713.316	9.29
713.442	28.36
713.569	5.72
713.696	20.83
713.823	-53.87
713.949	25.14
714.076	42.21
714.203	47.68
714.33	39.04
714.456	54.7
714.583	54.3
714.71	47.33
714.837	25.95
714.963	10.09
715.09	11.6
715.217	16.21
715.343	20.64
715.47	9.08
715.597	23.62
715.723	22.48
715.85	27.83
715.977	8.21
716.103	14.78
716.23	24.58
716.357	7.3
716.483	9.99
716.61	3.42
716.736	5.62
716.863	9.78
716.99	-1.57
717.116	7.42
717.243	9.11
717.369	11.22
717.496	15.66
717.623	4.33
717.749	4.61
717.876	-11.56
718.002	8.29
718.129	2.22
718.255	9.61
718.382	5.29
718.509	-4.95
718.635	7.5
718.762	4.41
718.888	8.06
719.015	6.21
719.141	12.29
719.268	-0.28
719.394	12.4
719.521	16.91
719.647	18.85
719.774	32.29
719.9	47.74
720.027	56.64
720.153	55.46
720.279	66.73
720.406	84.9
720.532	92.97
720.659	92.58
720.785	44.96
720.912	1.91
721.038	-1.77
721.165	-2.98
721.291	1.02
721.417	3.81
721.544	-1.17
721.67	4.02
721.797	0.52
721.923	9.79
722.049	10.65
722.176	-3.27
722.302	16.5
722.428	8.1
722.555	-7.16
722.681	9.5
722.807	9.11
722.934	6.52
723.06	14.42
723.186	-1.87
723.313	7.23
723.439	-5.39
723.565	7.13
723.692	13.12
723.818	11.72
723.944	7.21
724.07	6.87
724.197	6.03
724.323	5.42
724.449	9.78
724.576	13.91
724.702	14.95
724.828	14.48
724.954	7.23
725.081	9.76
725.207	5.32
725.333	15.62
725.459	19.59
725.585	29.98
725.712	28.52
725.838	36.39
725.964	47.49
726.09	52.7
726.216	78.1
726.343	92.67
726.469	102.75
726.595	71.57
726.721	92.74
726.847	116.18
726.973	130.58
727.099	157.67
727.226	142.61
727.352	75.71
727.478	16.38
727.604	13.57
727.73	16.04
727.856	19.42
727.982	17.85
728.108	-0.38
728.234	9.14
728.361	26.17
728.487	15.6
728.613	13.9
728.739	6.42
728.865	7.9
728.991	7.4
729.117	2.32
729.243	1.42
729.369	8.5
729.495	8.58
729.621	9.28
729.747	19.03
729.873	18.33
729.999	21.34
730.125	16.76
730.251	20.6
730.377	29.26
730.503	42.06
730.629	55
730.755	60.88
730.881	56.77
731.007	91.31
731.133	69.05
731.259	46.82
731.385	51.02
731.511	56.17
731.637	14
731.763	13.09
731.888	-2.07
732.014	9.98
732.14	9.32
732.266	14.36
732.392	7.7
732.518	8.1
732.644	4.13
732.77	11.1
732.896	16.69
733.021	16.28
733.147	16.98
733.273	19.09
733.399	19.2
733.525	33.21
733.651	15.89
733.777	24.15
733.902	27.14
734.028	32.14
734.154	44.24
734.28	60.52
734.406	65.36
734.531	76.44
734.657	88.01
734.783	103.28
734.909	116.92
735.034	139.7
735.16	174.13
735.286	142.64
735.412	87.78
735.537	52.69
735.663	48.92
735.789	65.54
735.915	94.24
736.04	130.69
736.166	121.73
736.292	184.75
736.418	202.7
736.543	238.99
736.669	283.35
736.795	320.99
736.92	385.87
737.046	530.45
737.172	478.76
737.297	351.32
737.423	354.65
737.549	376.13
737.674	444.2
737.8	494.82
737.926	600.03
738.051	676.13
738.177	891.09
738.302	937.39
738.428	463.62
738.554	141.37
738.679	61.55
738.805	54.49
738.93	46.72
739.056	52.24
739.182	54.82
739.307	23.39
739.433	27.35
739.558	3.31
739.684	12.41
739.809	15.6
739.935	21.21
740.06	21.12
740.186	24.58
740.311	17.48
740.437	16.7
740.562	24.58
740.688	14.03
740.813	38.4
740.939	41.49
741.064	38.84
741.19	51.48
741.315	34.74
741.441	25.01
741.566	37.29
741.692	31.45
741.817	31.01
741.943	43.26
742.068	41.73
742.194	44.31
742.319	62.35
742.444	51.07
742.57	49.79
742.695	49.21
742.821	35.44
742.946	35.86
743.071	44.33
743.197	58.51
743.322	54.14
743.448	73.58
743.573	49.84
743.698	23.83
743.824	8.6
743.949	14.2
744.074	13.39
744.2	7.99
744.325	22.91
744.45	19.19
744.576	8.42
744.701	14.01
744.826	17.65
744.952	3.23
745.077	9.5
745.202	22.05
745.327	13.1
745.453	18.66
745.578	21.21
745.703	20.25
745.828	20.17
745.954	26.57
746.079	25.21
746.204	30.23
746.329	22.47
746.455	35.37
746.58	40.6
746.705	29.83
746.83	30.61
746.956	48.13
747.081	55.37
747.206	61.06
747.331	58.8
747.456	61.82
747.582	69.74
747.707	77.32
747.832	92.23
747.957	102.45
748.082	122.36
748.207	158.44
748.332	176.72
748.458	178.11
748.583	211.29
748.708	273.09
748.833	323.19
748.958	430.34
749.083	579.57
749.208	769.65
749.333	1015.61
749.458	1318.67
749.584	1473.77
749.709	1796.63
749.834	2069.56
749.959	2374.08
750.084	2872.33
750.209	3969.61
750.334	3313.92
750.459	1605.43
750.584	994.61
750.709	939.83
750.834	987.23
750.959	1114.05
751.084	1235.64
751.209	1500.6
751.334	1907.75
751.459	1117.8
751.584	343.38
751.709	118.31
751.834	61.46
751.959	46
752.084	30.36
752.209	28.38
752.334	9.9
752.459	15.33
752.584	19.11
752.709	7.42
752.834	12.29
752.959	12.18
753.083	5.8
753.208	12.48
753.333	20.42
753.458	14.51
753.583	17.47
753.708	15.69
753.833	25.25
753.958	15.53
754.083	24.76
754.207	13.97
754.332	23.08
754.457	13.21
754.582	17.79
754.707	18.48
754.832	7.31
754.956	12.5
755.081	0.42
755.206	12.9
755.331	7.38
755.456	24
755.581	7.91
755.705	16.36
755.83	9.12
755.955	9.68
756.08	11.38
756.204	14.81
756.329	2.72
756.454	16.68
756.579	2.02
756.703	-4.47
756.828	7.2
756.953	18.2
757.078	7.42
757.202	21.18
757.327	18.69
757.452	3.71
757.576	11.98
757.701	3.81
757.826	9.12
757.951	24.41
758.075	13.97
758.2	15.28
758.325	0.22
758.449	13.39
758.574	23.8
758.699	18.48
758.823	22.13
758.948	8.59
759.072	8.17
759.197	9.91
759.322	23.7
759.446	21.46
759.571	17.79
759.695	21.93
759.82	21.92
759.945	17.67
760.069	18.03
760.194	27.86
760.318	30.85
760.443	29.62
760.568	27.49
760.692	36.16
760.817	31.45
760.941	44.66
761.066	52.18
761.19	64.35
761.315	78.63
761.439	77.31
761.564	109.95
761.688	125.86
761.813	162.84
761.937	233
762.062	315.04
762.186	410.97
762.311	587.19
762.435	811.34
762.56	1008.58
762.684	1194.88
762.809	1425.34
762.933	1573.66
763.057	1704.29
763.182	2063.97
763.306	2850.11
763.431	2914.65
763.555	1151.14
763.68	346.94
763.804	122.37
763.928	70.61
764.053	42.85
764.177	40.02
764.302	26.02
764.426	18.71
764.55	19.14
764.675	14.29
764.799	17.44
764.923	19.11
765.048	14.54
765.172	0.52
765.296	19.93
765.421	6.92
765.545	28.42
765.669	12.93
765.794	17.46
765.918	21.26
766.042	5.6
766.167	31.06
766.291	18.77
766.415	22.14
766.539	33.34
766.664	27.18
766.788	10.61
766.912	28.92
767.036	11.49
767.161	12.17
767.285	7.38
767.409	16.14
767.533	8.02
767.658	-0.97
767.782	13.84
767.906	8.23
768.03	16.77
768.154	3.12
768.279	13.69
768.403	5.5
768.527	17.16
768.651	3.71
768.775	11.03
768.899	3.71
769.024	8.48
769.148	5.69
769.272	0.72
769.396	12.15
769.52	14.93
769.644	14.7
769.768	19.43
