Data from 191228_Ar05mT_400W_ALA10_8000ms_Subt2_02-19-51-565.txt Node
Date: Sun Dec 29 02:19:51 KST 2019
User: L102
Spectrometer: HR4D2517
Trigger mode: 4
Integration Time (sec): 8.000000E0
Scans to average: 1
Electric dark correction enabled: true
Nonlinearity correction enabled: true
Boxcar width: 0
XAxis mode: Wavelengths
Number of Pixels in Spectrum: 3648
>>>>>Begin Spectral Data<<<<<
597.141	3.84
597.272	3.84
597.404	3.84
597.536	8.81
597.668	11.63
597.8	-9.21
597.932	6.17
598.064	-3.27
598.196	1.51
598.328	1.51
598.46	-3.87
598.591	8.07
598.723	5.83
598.855	2.42
598.987	-0.29
599.119	-8.76
599.251	4.12
599.383	-4.29
599.514	9.16
599.646	5.41
599.778	14.93
599.91	16.86
600.042	1.41
600.173	1.02
600.305	3.11
600.437	10.23
600.569	6.48
600.701	15.64
600.832	2.12
600.964	0.62
601.096	11.7
601.228	11.05
601.359	2.92
601.491	7.42
601.623	16.99
601.755	15.46
601.886	11.65
602.018	13.1
602.15	38.19
602.281	32.98
602.413	34.64
602.545	37.78
602.677	41.54
602.808	85.27
602.94	112.27
603.072	110.75
603.203	53.27
603.335	19.18
603.467	7.73
603.598	18.42
603.73	15.83
603.862	22.75
603.993	64.87
604.125	58.87
604.256	51.42
604.388	23.25
604.52	8.73
604.651	2.31
604.783	-2.88
604.915	10.49
605.046	11.81
605.178	9.33
605.309	11.9
605.441	28.29
605.572	23.21
605.704	18.32
605.836	15.34
605.967	13.46
606.099	-4.48
606.23	-1.68
606.362	7.91
606.493	-0.58
606.625	-2.48
606.756	6.22
606.888	-7.61
607.019	-5.29
607.151	0.02
607.282	9.11
607.414	2.61
607.545	-3.27
607.677	4.11
607.808	17.47
607.94	6.47
608.071	-0.68
608.203	8.73
608.334	2.02
608.466	15.59
608.597	4.62
608.728	13.2
608.86	5.81
608.991	1.12
609.123	11.42
609.254	6.41
609.386	5.21
609.517	5.68
609.648	32.16
609.78	14.12
609.911	14.24
610.043	6.78
610.174	22.19
610.305	27.38
610.437	20
610.568	13.14
610.699	10.05
610.831	3.52
610.962	3.52
611.093	4.31
611.225	0.21
611.356	19.74
611.487	-2.59
611.619	2.9
611.75	2.81
611.881	4.02
612.013	7.8
612.144	-3.57
612.275	-2.86
612.406	6.11
612.538	-1.99
612.669	13.47
612.8	11.47
612.931	2.32
613.063	5.42
613.194	-3.29
613.325	1.01
613.456	10.51
613.588	2.72
613.719	-4.67
613.85	0.71
613.981	6.21
614.112	23.36
614.244	36.95
614.375	31.9
614.506	20.91
614.637	9.89
614.768	0.91
614.9	15.89
615.031	11.03
615.162	3.92
615.293	16.84
615.424	26.2
615.555	1.92
615.686	0.22
615.818	14.99
615.949	-1.48
616.08	13.45
616.211	14.92
616.342	16.42
616.473	4.01
616.604	4.83
616.735	25.11
616.866	37.21
616.998	39.73
617.129	32.38
617.26	10.72
617.391	-6.86
617.522	4.42
617.653	26.44
617.784	3.42
617.915	-7.36
618.046	4.81
618.177	2.21
618.308	2.51
618.439	4.49
618.57	8.56
618.701	10.44
618.832	-2.39
618.963	1.31
619.094	-0.08
619.225	-3.08
619.356	-3.09
619.487	-9.64
619.618	1.11
619.749	5.51
619.88	-3.38
620.011	7.31
620.142	6.2
620.273	6.01
620.404	-1.68
620.535	8.98
620.665	16.59
620.796	14.01
620.927	23.03
621.058	24.58
621.189	30.31
621.32	27.46
621.451	9.63
621.582	11.74
621.713	11.82
621.844	-6.09
621.974	11.24
622.105	1.11
622.236	5.98
622.367	2.82
622.498	4.02
622.629	4.41
622.759	-9.97
622.89	1.22
623.021	1.91
623.152	-11.48
623.283	5.7
623.414	5.33
623.544	-4.58
623.675	-3.96
623.806	5.59
623.937	0.02
624.067	-12.2
624.198	6.49
624.329	9.99
624.46	-39.81
624.59	5.51
624.721	8.58
624.852	8.79
624.983	2.51
625.113	1.81
625.244	10.04
625.375	10.73
625.506	1.72
625.636	-1.98
625.767	-0.08
625.898	10.36
626.028	4.41
626.159	-1.99
626.29	3.3
626.42	11.4
626.551	-2.59
626.682	5.81
626.812	3.49
626.943	5.5
627.074	-0.58
627.204	8.52
627.335	15.78
627.466	2.69
627.596	5.52
627.727	1.82
627.857	-11.06
627.988	7.51
628.119	11.21
628.249	5.91
628.38	10.75
628.51	-4.97
628.641	-1.58
628.772	4.42
628.902	4.7
629.033	4.31
629.163	7.92
629.294	27.23
629.424	32.91
629.555	34.16
629.685	12.32
629.816	6.42
629.946	1.71
630.077	0.12
630.207	4.62
630.338	28.66
630.468	24.53
630.599	24.94
630.729	9.93
630.86	16.04
630.99	21
631.121	2.71
631.251	3.11
631.382	-15.52
631.512	3.81
631.643	6.97
631.773	0.82
631.904	4.31
632.034	-0.78
632.164	4.1
632.295	5.61
632.425	7.82
632.556	-5.94
632.686	-3.96
632.816	-0.79
632.947	7.83
633.077	-0.08
633.208	6.11
633.338	1.42
633.468	5.71
633.599	2.5
633.729	-0.58
633.859	-6.7
633.99	-2.49
634.12	0.81
634.25	-6.59
634.381	-2.39
634.511	-0.88
634.641	6.01
634.772	9.48
634.902	4.41
635.032	8.51
635.163	7.42
635.293	-3.77
635.423	-0.18
635.553	2.72
635.684	-0.98
635.814	7.38
635.944	6.11
636.074	0.32
636.205	12.01
636.335	5.47
636.465	13.55
636.595	15.72
636.726	7.6
636.856	18.02
636.986	-11.59
637.116	11.64
637.246	11.1
637.377	3.79
637.507	4.21
637.637	5.41
637.767	11.38
637.897	6.77
638.027	19.31
638.158	16.33
638.288	26.84
638.418	14.87
638.548	0.22
638.678	8.4
638.808	1.11
638.938	-8.62
639.069	0.91
639.199	-3.09
639.329	-4.48
639.459	-1.49
639.589	-1.89
639.719	-4.28
639.849	-5.18
639.979	-9.29
640.109	2.12
640.239	1.12
640.369	1.61
640.5	5.19
640.63	-7.09
640.76	18.62
640.89	23.63
641.02	22.73
641.15	22.8
641.28	38.8
641.41	52.64
641.54	41.07
641.67	14.95
641.8	9.21
641.93	5.8
642.06	-8.27
642.19	-5.87
642.32	-5.87
642.45	-0.18
642.58	15.38
642.71	0.61
642.84	0.02
642.97	7.01
643.1	-1.78
643.229	-5.28
643.359	-6.19
643.489	10.15
643.619	13.73
643.749	1.62
643.879	2.02
644.009	-2.98
644.139	16.83
644.269	-1.38
644.399	7.41
644.529	5.79
644.658	-2.47
644.788	-0.98
644.918	11.81
645.048	4.31
645.178	-4.67
645.308	6.49
645.438	12.2
645.567	7.17
645.697	6.48
645.827	3.91
645.957	6.3
646.087	14.37
646.216	14.08
646.346	19.8
646.476	17.53
646.606	13.27
646.736	18.82
646.865	14.3
646.995	5.21
647.125	-1.18
647.255	0.51
647.384	4.11
647.514	-2.09
647.644	9.57
647.774	5.02
647.903	19.77
648.033	-4.98
648.163	6.1
648.293	-10.05
648.422	-3.29
648.552	-0.08
648.682	-0.38
648.811	-3.87
648.941	-4.29
649.071	-1.18
649.2	6.37
649.33	2.72
649.46	3.62
649.589	2.41
649.719	8.1
649.849	8.47
649.978	3.22
650.108	-3.49
650.238	5.59
650.367	3.59
650.497	8.22
650.626	1.92
650.756	7.17
650.886	-5.48
651.015	-0.38
651.145	5.9
651.274	8.76
651.404	3.4
651.534	5.11
651.663	3.72
651.793	0.02
651.922	1.11
652.052	-10.87
652.181	3.02
652.311	9.86
652.44	6.22
652.57	-4.08
652.699	-0.38
652.829	2.81
652.958	-0.78
653.088	14.15
653.217	-3.19
653.347	18.62
653.476	11.91
653.606	6.51
653.735	13.77
653.865	-2.77
653.994	0.02
654.124	9.13
654.253	-5.09
654.383	6.71
654.512	5.8
654.642	-0.18
654.771	-4.49
654.9	-0.48
655.03	-3.37
655.159	-0.18
655.289	13.2
655.418	8.36
655.547	3.69
655.677	11.58
655.806	-1.98
655.936	12.52
656.065	25.14
656.194	0.51
656.324	13.55
656.453	4.31
656.582	-5.96
656.712	5.72
656.841	3.12
656.97	9.3
657.1	0.61
657.229	-5.09
657.358	-11.7
657.488	9.88
657.617	-13.76
657.746	-1.29
657.876	7.02
658.005	-6.59
658.134	5.9
658.263	-1.58
658.393	-3.78
658.522	-2.37
658.651	10.51
658.78	0.02
658.91	-3.28
659.039	5.11
659.168	16.64
659.297	6.92
659.427	9.12
659.556	15.94
659.685	12.92
659.814	7.73
659.943	2.31
660.073	12.85
660.202	18.8
660.331	34.97
660.46	17.5
660.589	8.1
660.719	-1.87
660.848	5.63
660.977	-4.98
661.106	-0.99
661.235	15.55
661.364	-0.68
661.493	8.51
661.623	3.31
661.752	3.8
661.881	-0.68
662.01	2.71
662.139	2.4
662.268	7.4
662.397	-4.59
662.526	-0.38
662.655	-4.78
662.784	0.21
662.913	-8.56
663.043	5.3
663.172	-0.08
663.301	-4.95
663.43	-1.08
663.559	1.72
663.688	1.91
663.817	-0.58
663.946	10.52
664.075	-13.32
664.204	-0.08
664.333	-2.39
664.462	0.51
664.591	-4.29
664.72	-0.18
664.849	9.47
664.978	13.49
665.107	10.8
665.236	11.48
665.365	5.99
665.494	11.41
665.623	11.84
665.751	23.57
665.88	23.6
666.009	12.12
666.138	17.31
666.267	25.44
666.396	17.1
666.525	5.01
666.654	-0.99
666.783	-4.87
666.912	1.71
667.041	14.6
667.169	14.39
667.298	12.96
667.427	19.5
667.556	11.74
667.685	13.02
667.814	0.61
667.943	6.6
668.071	9.11
668.2	12.24
668.329	-1.48
668.458	4.09
668.587	-2.89
668.716	2.12
668.844	0.11
668.973	2.3
669.102	4.01
669.231	12.09
669.359	9.49
669.488	8.89
669.617	9.8
669.746	17.74
669.875	6.8
670.003	12.93
670.132	2.31
670.261	-1.69
670.389	-6.58
670.518	-2.07
670.647	-9.69
670.776	1.41
670.904	-1.18
671.033	2.31
671.162	9.72
671.29	-6.47
671.419	14.5
671.548	0.92
671.676	5.52
671.805	15.94
671.934	7.57
672.062	20.63
672.191	2.11
672.32	13.69
672.448	6.29
672.577	9.66
672.706	2.52
672.834	-5.98
672.963	7.02
673.092	9.77
673.22	6.02
673.349	-0.08
673.477	20.55
673.606	10.49
673.735	21.12
673.863	19.98
673.992	25.75
674.12	37.24
674.249	34.36
674.377	51.77
674.506	67.38
674.634	93.08
674.763	109.44
674.892	136.4
675.02	172.15
675.149	203.68
675.277	136.8
675.406	62.97
675.534	43.33
675.663	25.18
675.791	7.2
675.92	11.12
676.048	14.58
676.176	30.64
676.305	25.36
676.433	28.4
676.562	37.49
676.69	19.44
676.819	5.61
676.947	0.62
677.076	-8.71
677.204	-0.68
677.332	13.68
677.461	3.01
677.589	-3.08
677.718	7
677.846	11.44
677.975	-2.68
678.103	-29.03
678.231	1.31
678.36	3.41
678.488	3.81
678.616	9.79
678.745	0.51
678.873	-4.27
679.001	13.39
679.13	7.43
679.258	3.9
679.386	10.68
679.515	-3.58
679.643	3.51
679.771	0.61
679.9	-3.69
680.028	10.03
680.156	7.11
680.285	9.28
680.413	1.02
680.541	1.31
680.669	7.28
680.798	-1.48
680.926	-1.49
681.054	6.31
681.182	0.81
681.311	9.86
681.439	7.69
681.567	7.02
681.695	18.2
681.824	5.02
681.952	-2.69
682.08	-7.3
682.208	-3.69
682.336	6.11
682.465	-1.38
682.593	1.81
682.721	15.41
682.849	22.19
682.977	7.01
683.105	1.51
683.234	3.11
683.362	9.17
683.49	-8.47
683.618	-3.49
683.746	-12.41
683.874	2.21
684.002	-0.78
684.131	6.62
684.259	-3.47
684.387	5.91
684.515	5.72
684.643	1.61
684.771	2.21
684.899	3.41
685.027	5.53
685.155	16.68
685.283	12.04
685.411	17.58
685.539	3.01
685.667	21.49
685.796	15.58
685.924	39.88
686.052	22.78
686.18	42.62
686.308	51.51
686.436	74.11
686.564	86.82
686.692	116.13
686.82	130.85
686.948	175.32
687.076	164.64
687.204	75.84
687.332	34.86
687.459	28.09
687.587	21.55
687.715	20.29
687.843	27.26
687.971	27.54
688.099	21.99
688.227	26.05
688.355	36.91
688.483	28.17
688.611	37.02
688.739	32.92
688.867	18.97
688.995	0.02
689.122	-7.3
689.25	-0.28
689.378	-3.66
689.506	0.61
689.634	-10.87
689.762	1.51
689.89	2.01
690.018	5.99
690.145	-5.58
690.273	12.29
690.401	2.11
690.529	5.01
690.657	14.49
690.784	7.51
690.912	4.99
691.04	7.86
691.168	8.71
691.296	9.79
691.423	5.09
691.551	8.69
691.679	-1.28
691.807	-0.38
691.935	8.61
692.062	19.22
692.19	21.6
692.318	20.09
692.446	21.74
692.573	22.31
692.701	27.76
692.829	29.53
692.956	32.65
693.084	39.58
693.212	45.9
693.34	54.28
693.467	73.9
693.595	78.16
693.723	75.14
693.85	27.89
693.978	29.49
694.106	22.96
694.233	16.08
694.361	23.13
694.489	23.2
694.616	44.7
694.744	46.82
694.871	53.82
694.999	67.12
695.127	68.4
695.254	70.12
695.382	74.15
695.509	102.03
695.637	131.94
695.765	180.93
695.892	214.82
696.02	244.87
696.147	280.46
696.275	350.03
696.403	429.51
696.53	308.09
696.658	113.82
696.785	33.79
696.913	6.51
697.04	25.83
697.168	4.6
697.295	11.39
697.423	10.49
697.55	17.11
697.678	-7.46
697.805	1.91
697.933	10.71
698.06	-7.74
698.188	0.82
698.315	-0.19
698.443	13.72
698.57	1.91
698.698	14.03
698.825	3.01
698.952	8.62
699.08	8.04
699.207	5.32
699.335	-4.39
699.462	6.82
699.59	8.13
699.717	3.1
699.844	4.51
699.972	2.71
700.099	4.79
700.227	-7.53
700.354	-3.18
700.481	10.29
700.609	16.31
700.736	12.9
700.863	1.01
700.991	5.91
701.118	3.5
701.245	3
701.373	9.85
701.5	9.08
701.627	9.89
701.755	12.97
701.882	29.86
702.009	20.61
702.137	33.66
702.264	52.69
702.391	62.38
702.518	70.89
702.646	82.97
702.773	102.21
702.9	121.26
703.027	96.3
703.155	20.61
703.282	15.08
703.409	14.8
703.536	14.21
703.664	7.1
703.791	10.4
703.918	2.21
704.045	16.44
704.172	17.72
704.3	23.91
704.427	5.91
704.554	25.79
704.681	17.11
704.808	15.16
704.936	18.01
705.063	33.95
705.19	46.57
705.317	49.09
705.444	61.26
705.571	78.58
705.698	99.48
705.826	117.63
705.953	162.15
706.08	208.46
706.207	234.83
706.334	289.92
706.461	354.48
706.588	449.48
706.715	376.82
706.842	183.88
706.969	61.19
707.096	17.33
707.224	6.69
707.351	17.74
707.478	0.61
707.605	1.61
707.732	15.59
707.859	6.9
707.986	2.72
708.113	3.92
708.24	-2.08
708.367	9.1
708.494	6.89
708.621	5.51
708.748	15.28
708.875	3.79
709.002	-4.67
709.129	0.91
709.256	1.01
709.383	0.21
709.51	15.1
709.637	12.85
709.764	10.88
709.89	13.16
710.017	18.8
710.144	14.23
710.271	12.65
710.398	10.04
710.525	26.3
710.652	21.07
710.779	17.47
710.906	13.75
711.033	13.1
711.16	-0.88
711.286	-2.08
711.413	12.44
711.54	10.67
711.667	9.32
711.794	16.81
711.921	2.6
712.048	14.62
712.174	11.72
712.301	26.04
712.428	32.08
712.555	20.75
712.682	6.92
712.808	4.21
712.935	2.01
713.062	4.52
713.189	1.71
713.316	-2.08
713.442	10.89
713.569	0.61
713.696	21.02
713.823	-62.77
713.949	27.83
714.076	38.49
714.203	44.57
714.33	42.71
714.456	53.69
714.583	49.78
714.71	53.91
714.837	21.65
714.963	13.58
715.09	8.9
715.217	17.2
715.343	28.31
715.47	16.14
715.597	22.91
715.723	19.46
715.85	24.63
715.977	5.3
716.103	12.88
716.23	17.28
716.357	7.69
716.483	4.4
716.61	-4.09
716.736	2.11
716.863	4.4
716.99	-1.87
717.116	-3.18
717.243	5.21
717.369	4.71
717.496	16.75
717.623	16.22
717.749	3.9
717.876	-5.38
718.002	8.19
718.129	8.12
718.255	5.71
718.382	-0.48
718.509	2.6
718.635	7.79
718.762	3.81
718.888	4.08
719.015	13.18
719.141	-0.08
719.268	8.71
719.394	10.8
719.521	18.5
719.647	17.84
719.774	26.19
719.9	43.54
720.027	48.05
720.153	48.14
720.279	53.6
720.406	66.13
720.532	82.82
720.659	72.53
720.785	45.15
720.912	6.29
721.038	4.9
721.165	3.32
721.291	-4.58
721.417	12.47
721.544	2.41
721.67	8.42
721.797	-9.6
721.923	1.61
722.049	8.75
722.176	0.61
722.302	15.89
722.428	0.61
722.555	-7.87
722.681	14.19
722.807	6.41
722.934	6.12
723.06	9.55
723.186	9.28
723.313	2.82
723.439	-4.8
723.565	7.42
723.692	11.52
723.818	8.01
723.944	6.01
724.07	2
724.197	4.52
724.323	3.61
724.449	9.37
724.576	16.2
724.702	4.29
724.828	14.77
724.954	7.72
725.081	9.16
725.207	11.01
725.333	12.51
725.459	16.38
725.585	25.08
725.712	31.61
725.838	30.49
725.964	42.01
726.09	53.19
726.216	67.09
726.343	75.05
726.469	88.74
726.595	76.57
726.721	77.41
726.847	105.01
726.973	112.16
727.099	125
727.226	131.53
727.352	54.63
727.478	13.28
727.604	9.08
727.73	11.93
727.856	7.61
727.982	12.37
728.108	10.29
728.234	9.93
728.361	19.25
728.487	14.99
728.613	10.9
728.739	13.11
728.865	0.21
728.991	8.48
729.117	7.61
729.243	4.41
729.369	6
729.495	3
729.621	10.27
729.747	7.58
729.873	2.42
729.999	25.42
730.125	12.07
730.251	21.89
730.377	36.87
730.503	38.47
730.629	40.09
730.755	57.97
730.881	64.86
731.007	76.54
731.133	66.35
731.259	42.61
731.385	33.45
731.511	47.39
731.637	9.5
731.763	5.5
731.888	8.6
732.014	2.7
732.14	2.51
732.266	11.14
732.392	9.69
732.518	11.78
732.644	2.22
732.77	8.8
732.896	20.27
733.021	10.89
733.147	9.99
733.273	12.99
733.399	15.2
733.525	21.94
733.651	14.69
733.777	25.94
733.902	26.63
734.028	34.93
734.154	44.73
734.28	47.71
734.406	65.06
734.531	68.46
734.657	86.31
734.783	93.28
734.909	106.7
735.034	134.21
735.16	164.63
735.286	135.72
735.412	58.31
735.537	44.72
735.663	41.65
735.789	49.12
735.915	72.2
736.04	111.76
736.166	121.82
736.292	164.53
736.418	179.99
736.543	222.18
736.669	254.89
736.795	292.09
736.92	344.36
737.046	475.15
737.172	420.09
737.297	305.46
737.423	309.32
737.549	340.13
737.674	402.2
737.8	448.38
737.926	528.78
738.051	599.37
738.177	800.27
738.302	848.08
738.428	411.79
738.554	145.96
738.679	51.74
738.805	34.26
738.93	38.81
739.056	47.64
739.182	51.23
739.307	12.5
739.433	31.93
739.558	1.01
739.684	11
739.809	14.1
739.935	21.01
740.06	15.64
740.186	26.37
740.311	20.47
740.437	21.68
740.562	24.77
740.688	15.81
740.813	29.49
740.939	35.8
741.064	42.63
741.19	44.77
741.315	28.93
741.441	18.6
741.566	26.19
741.692	35.52
741.817	36.2
741.943	37.95
742.068	37.03
742.194	41.11
742.319	58.36
742.444	57.65
742.57	44.59
742.695	41.25
742.821	33.23
742.946	32.35
743.071	42.03
743.197	50.94
743.322	72.98
743.448	67.68
743.573	45.86
743.698	25.72
743.824	11.59
743.949	16.69
744.074	12.98
744.2	8.08
744.325	14.44
744.45	11.59
744.576	5.31
744.701	21.69
744.826	17.44
744.952	8.53
745.077	18.48
745.202	15.36
745.327	4.61
745.453	20.15
745.578	25.58
745.703	21.74
745.828	21.45
745.954	25.37
746.079	21.5
746.204	32.92
746.329	20.36
746.455	30.88
746.58	25.9
746.705	39.66
746.83	28.3
746.956	34.71
747.081	41.97
747.206	53.36
747.331	49.31
747.456	48.77
747.582	62.46
747.707	75.82
747.832	80.89
747.957	87.66
748.082	102.71
748.207	125.36
748.332	160.17
748.458	153.45
748.583	186.47
748.708	238.03
748.833	294.76
748.958	377.33
749.083	526.14
749.208	687.46
749.333	917.07
749.458	1171.03
749.584	1317.84
749.709	1622.48
749.834	1860.6
749.959	2135.32
750.084	2610.2
750.209	3559.6
750.334	2996.58
750.459	1436.27
750.584	881.34
750.709	847.3
750.834	888.22
750.959	1000.15
751.084	1103.19
751.209	1358.46
751.334	1721.25
751.459	1007.22
751.584	302.22
751.709	102.67
751.834	49.86
751.959	42.2
752.084	24.48
752.209	31.96
752.334	21.37
752.459	24.23
752.584	14.1
752.709	-0.58
752.834	13.98
752.959	10.47
753.083	3
753.208	4.9
753.333	18.61
753.458	13.8
753.583	15.87
753.708	14.78
753.833	22.34
753.958	11.22
754.083	11.58
754.207	20.84
754.332	19.58
754.457	17.11
754.582	6.2
754.707	12.49
754.832	20.59
754.956	22.27
755.081	7.08
755.206	-3.28
755.331	6.88
755.456	8.51
755.581	3.81
755.705	14.75
755.83	8.71
755.955	16.64
756.08	2.31
756.204	5.71
756.329	-1.19
756.454	16.48
756.579	-1.58
756.703	-2.08
756.828	10.19
756.953	4.41
757.078	10.62
757.202	17.68
757.327	5.9
757.452	4.3
757.576	16.46
757.701	4.5
757.826	11.71
757.951	22.1
758.075	17.15
758.2	15.77
758.325	5.5
758.449	10.69
758.574	16
758.699	5
758.823	10.37
758.948	8.98
759.072	1.01
759.197	14.99
759.322	14.8
759.446	17.36
759.571	17.68
759.695	20.22
759.82	15.14
759.945	19.16
760.069	16.52
760.194	17.34
760.318	18.57
760.443	29.31
760.568	16.39
760.692	36.65
760.817	29.44
760.941	36.84
761.066	44.42
761.19	57.65
761.315	68.82
761.439	78.3
761.564	83.79
761.688	115.94
761.813	159.12
761.937	203.51
762.062	268.32
762.186	375.74
762.311	528.46
762.435	717.82
762.56	895.38
762.684	1069.85
762.809	1262.74
762.933	1383.7
763.057	1518.86
763.182	1846.84
763.306	2546.86
763.431	2607.65
763.555	1022.2
763.68	300.1
763.804	120.56
763.928	58.83
764.053	40.25
764.177	30.24
764.302	17.71
764.426	18.6
764.55	22.22
764.675	12.09
764.799	19.52
764.923	10.95
765.048	6.42
765.172	2.52
765.296	17.12
765.421	18.42
765.545	32.72
765.669	11.04
765.794	18.84
765.918	19.26
766.042	13.36
766.167	20.27
766.291	23.45
766.415	13.47
766.539	21.1
766.664	23.38
766.788	18.19
766.912	25.52
767.036	14.08
767.161	14.05
767.285	7.37
767.409	5.32
767.533	13.12
767.658	3.8
767.782	14.32
767.906	9.72
768.03	20.25
768.154	11.3
768.279	10.79
768.403	7.98
768.527	17.46
768.651	5.69
768.775	17.93
768.899	6.8
769.024	15.74
769.148	5.09
769.272	13.78
769.396	13.24
769.52	7.82
769.644	9.2
769.768	10.27
769.892	8.08
